153 layers
  height (km)    press (atm)    temp (K)    H2 VMR       He VMR      CH4 VMR      H2S VMR      NH3 VMR       N2 VMR          Aerosol-1    Aerosol-2 Aerosol-3
     -137.185      40.0000      256.648     0.804750     0.142440    0.0478310    0.000997010  0.000997010   0.00299100      0.00000      0.00000   8.32699e-37
     -130.937      36.1120      248.998     0.804750     0.142440    0.0478310    0.000997010  0.000997010   0.00299100      0.00000      0.00000   8.32699e-37
     -124.876      32.6020      241.348     0.804750     0.142440    0.0478310    0.000997010  0.000997010   0.00299100      0.00000      0.00000   8.32699e-37
     -119.000      29.4340      233.698     0.804750     0.142440    0.0478310    0.000997010  0.000997010   0.00299100      0.00000      0.00000   8.32699e-37
     -113.311      26.5730      226.047     0.804750     0.142440    0.0478310    0.000997010  0.000997010   0.00299100      0.00000      0.00000   8.32699e-37
     -107.809      23.9900      218.397     0.804750     0.142440    0.0478310    0.000997010  0.000997010   0.00299100      0.00000      0.00000   8.32699e-37
     -102.494      21.6580      210.747     0.804750     0.142440    0.0478310    0.000997010  0.000997010   0.00299100      0.00000      0.00000   8.32699e-37
     -97.3660      19.5530      203.097     0.804750     0.142440    0.0478310    0.000997010  0.000997010   0.00299100      0.00000      0.00000   8.32699e-37
     -92.4250      17.6530      195.446     0.804750     0.142440    0.0478310    0.000997010  0.000997010   0.00299100      0.00000      0.00000   8.32699e-37
     -87.6730      15.9370      187.796     0.804750     0.142440    0.0478310    0.000997010  0.000997010   0.00299100      0.00000      0.00000   8.32699e-37
     -83.1060      14.3880      180.146     0.804930     0.142470    0.0478310    0.000997010  0.000781810   0.00299100      0.00000      0.00000   8.32699e-37
     -82.2790      14.1180      178.717     0.805020     0.142490    0.0478310    0.000997010  0.000669210   0.00299100      0.00000      0.00000   8.32699e-37
     -81.4470      13.8490      177.289     0.805110     0.142500    0.0478310    0.000997010  0.000571460   0.00299100      0.00000      0.00000   1.33005e-36
     -80.6010      13.5790      175.861     0.805180     0.142520    0.0478310    0.000997010  0.000486800   0.00299100      0.00000      0.00000   3.23461e-36
     -79.7480      13.3100      174.432     0.805240     0.142530    0.0478310    0.000997010  0.000413540   0.00299100      0.00000      0.00000   7.92689e-36
     -78.8840      13.0410      173.004     0.805290     0.142540    0.0478310    0.000997010  0.000350440   0.00299100      0.00000      0.00000   1.96479e-35
     -78.0060      12.7710      171.576     0.805340     0.142540    0.0478310    0.000997010  0.000296190   0.00299100      0.00000      0.00000   4.94499e-35
     -77.1200      12.5020      170.147     0.805380     0.142550    0.0478310    0.000997010  0.000249610   0.00299100      0.00000      0.00000   1.25560e-34
     -76.2180      12.2320      168.719     0.805410     0.142560    0.0478310    0.000997010  0.000209810   0.00299100      0.00000      0.00000   3.24072e-34
     -75.3070      11.9630      167.290     0.805440     0.142560    0.0478310    0.000997010  0.000175820   0.00299100  5.53441e-37      0.00000   8.44673e-34
     -74.3800      11.6930      165.862     0.805470     0.142570    0.0478310    0.000997010  0.000146940   0.00299100  2.81992e-35      0.00000   2.24065e-33
     -73.4430      11.4240      164.434     0.805490     0.142570    0.0478310    0.000997010  0.000122420   0.00299100  1.39356e-33      0.00000   6.00903e-33
     -72.4910      11.1550      163.005     0.805510     0.142570    0.0478310    0.000997010  0.000101670   0.00299100  6.75523e-32      0.00000   1.63619e-32
     -71.5210      10.8850      161.577     0.805520     0.142580    0.0478310    0.000997010  8.41950e-05   0.00299100  3.24607e-30      0.00000   4.54423e-32
     -70.5390      10.6160      160.148     0.805530     0.142580    0.0478310    0.000997010  6.94840e-05   0.00299100  1.49632e-28      0.00000   1.27853e-31
     -69.5360      10.3460      158.720     0.805540     0.142580    0.0478310    0.000997010  5.71710e-05   0.00299100  6.77661e-27      0.00000   3.67563e-31
     -68.5200      10.0770      157.292     0.805550     0.142580    0.0478310    0.000997010  4.68790e-05   0.00299100  2.91612e-25      0.00000   1.07224e-30
     -67.4840      9.80750      155.863     0.805560     0.142580    0.0478310    0.000997010  3.83050e-05   0.00299100  1.21068e-23      0.00000   3.19606e-30
     -66.4280      9.53800      154.435     0.805570     0.142580    0.0478310    0.000997010  3.11950e-05   0.00299100  4.78430e-22      0.00000   9.72551e-30
     -65.3520      9.26860      153.006     0.805660     0.142600    0.0478310    0.000893650  2.53100e-05   0.00299100  1.78419e-20      0.00000   3.02868e-29
     -64.2530      8.99920      151.578     0.805760     0.142620    0.0478310    0.000779320  2.04640e-05   0.00299100  6.23646e-19      0.00000   9.66655e-29
     -63.1300      8.72970      150.150     0.805850     0.142630    0.0478310    0.000678080  1.64850e-05   0.00299100  2.02696e-17      0.00000   3.16718e-28
     -61.9810      8.46030      148.721     0.805930     0.142650    0.0478310    0.000588560  1.32270e-05   0.00299100  6.04669e-16      0.00000   1.06586e-27
     -60.8060      8.19090      147.293     0.806000     0.142660    0.0478310    0.000509730  1.05740e-05   0.00299100  1.63829e-14      0.00000   3.69196e-27
     -59.6010      7.92140      145.864     0.806060     0.142670    0.0478310    0.000440360  8.41870e-06   0.00299100  3.98208e-13      0.00000   1.31923e-26
     -58.5070      7.68220      144.430     0.806110     0.142680    0.0478310    0.000377780  6.64300e-06   0.00299100  6.09161e-12      0.00000   4.19115e-26
     -57.4420      7.45430      142.994     0.806160     0.142690    0.0478310    0.000322640  5.20900e-06   0.00299100  7.39136e-11      0.00000   1.29063e-25
     -56.3550      7.22650      141.558     0.806200     0.142700    0.0478310    0.000274750  4.06570e-06   0.00299100  8.00671e-10      0.00000   4.07046e-25
     -55.2440      6.99860      140.122     0.806240     0.142700    0.0478310    0.000233280  3.15840e-06   0.00299100  7.65634e-09      0.00000   1.31809e-24
     -54.1070      6.77080      138.686     0.806270     0.142710    0.0478310    0.000197480  2.44180e-06   0.00299100  6.35317e-08      0.00000   4.38495e-24
     -52.9430      6.54300      137.250     0.806300     0.142710    0.0478310    0.000166670  1.87840e-06   0.00299100  4.50157e-07      0.00000   1.50216e-23
     -51.7490      6.31510      135.814     0.806320     0.142720    0.0478310    0.000140230  1.43770e-06   0.00299100  2.67294e-06      0.00000   5.31288e-23
     -50.5850      6.09850      134.441     0.806340     0.142720    0.0478310    0.000118510  1.10780e-06   0.00299100  1.20767e-05  3.00663e-35   1.82061e-22
     -49.5300      5.90680      133.204     0.806350     0.142720    0.0478310    0.000101520  8.71830e-07   0.00299100  3.87802e-05  6.66899e-33   5.56199e-22
     -48.4500      5.71500      131.969     0.806370     0.142720    0.0478310    8.67820e-05  6.83670e-07   0.00299100  0.000104509  1.43092e-30   1.74661e-21
     -47.3430      5.52330      130.733     0.806380     0.142730    0.0478310    7.39890e-05  5.33790e-07   0.00299100  0.000231575  2.92437e-28   5.64127e-21
     -46.2070      5.33150      129.497     0.806390     0.142730    0.0478310    6.29260e-05  4.15040e-07   0.00299100  0.000413054  5.65864e-26   1.88009e-20
     -45.0410      5.13970      128.261     0.806390     0.142730    0.0478310    5.33830e-05  3.21350e-07   0.00299100  0.000578094  1.02011e-23   6.47615e-20
     -43.8420      4.94800      127.025     0.806400     0.142730    0.0478310    4.51730e-05  2.47730e-07   0.00299100  0.000616923  1.68236e-21   2.30980e-19
     -42.6880      4.76840      125.729     0.806410     0.142730    0.0478310    3.76440e-05  1.86860e-07   0.00299100  0.000498071  1.82892e-19   7.85714e-19
     -41.6250      4.60730      124.346     0.806410     0.142730    0.0478310    3.06760e-05  1.36600e-07   0.00299100  0.000319455  1.11838e-17   2.41997e-18
     -40.5370      4.44610      122.962     0.806420     0.142730    0.0478310    2.48910e-05  9.91720e-08   0.00299100  0.000157142  6.18706e-16   7.66947e-18
     -39.4210      4.28500      121.579     0.806420     0.142730    0.0478310    2.01140e-05  7.15320e-08   0.00299100  5.76441e-05  3.02958e-14   2.50271e-17
     -38.2750      4.12380      120.195     0.806430     0.142740    0.0478310    1.61810e-05  5.12250e-08   0.00299100  1.52377e-05  1.29370e-12   8.44055e-17
     -37.0970      3.96270      118.811     0.806430     0.142740    0.0478310    1.29590e-05  3.64210e-08   0.00299100  2.79959e-06  4.68709e-11   2.94512e-16
     -35.8840      3.80150      117.428     0.806430     0.142740    0.0478310    1.03340e-05  2.57150e-08   0.00299100  3.41556e-07  1.40910e-09   1.06795e-15
     -34.8190      3.66390      115.979     0.806430     0.142740    0.0478310    8.04270e-06  1.75620e-08   0.00299100  3.95250e-08  2.16534e-08   3.30034e-15
     -33.7390      3.52770      114.527     0.806430     0.142740    0.0478310    6.21660e-06  1.18690e-08   0.00299100  3.24740e-09  2.70259e-07   1.03765e-14
     -32.6310      3.39150      113.075     0.806440     0.142740    0.0478310    4.77600e-06  7.94560e-09   0.00299100  1.78381e-10  2.74853e-06   3.36482e-14
     -31.4910      3.25530      111.622     0.806440     0.142740    0.0478310    3.64550e-06  5.26530e-09   0.00299100  6.25832e-12  2.21136e-05   1.12821e-13
     -30.3180      3.11910      110.170     0.806440     0.142740    0.0478310    2.76530e-06  3.45480e-09   0.00299100  1.33034e-13  0.000135993   3.92273e-13
     -29.1090      2.98290      108.718     0.806440     0.142740    0.0478310    2.08380e-06  2.24330e-09   0.00299100  1.61184e-15  0.000613977   1.41895e-12
     -28.0430      2.86630      107.194     0.806440     0.142740    0.0478310    1.52300e-06  1.39630e-09   0.00299100  2.23499e-17   0.00168428   4.39626e-12
     -26.9590      2.75070      105.668     0.806440     0.142740    0.0478310    1.10270e-06  8.56780e-10   0.00299100  1.93244e-19   0.00341976   1.39082e-11
     -25.8440      2.63510      104.141     0.806440     0.142740    0.0478310    7.91150e-07  5.18380e-10   0.00299100  9.49575e-22   0.00498848   4.54836e-11
     -24.6940      2.51940      102.614     0.806440     0.142740    0.0478310    5.62410e-07  3.09190e-10   0.00299100  2.46580e-24   0.00499083   1.54384e-10
     -23.5100      2.40380      101.087     0.806440     0.142740    0.0478310    3.95990e-07  1.81690e-10   0.00299100  3.16091e-27   0.00324326   5.44588e-10
     -23.2680      2.38070      100.782     0.806440     0.142740    0.0478310    3.68760e-07  1.63090e-10   0.00299100  7.61180e-28   0.00281029   7.04150e-10
     -22.0070      2.26230      98.9611     0.806440     0.142740    0.0478310    2.36930e-07  8.37380e-11   0.00299100  3.02383e-31  0.000967363   2.69289e-09
     -20.8500      2.15710      97.2036     0.806440     0.142740    0.0478310    1.51660e-07  4.28280e-11   0.00299100  1.26479e-34  0.000223505   9.20789e-09
     -19.6570      2.05190      95.4461     0.806440     0.142740    0.0478310    9.55590e-08  2.13830e-11   0.00299100      0.00000  2.94579e-05   3.27567e-08
     -18.4240      1.94670      93.6886     0.806440     0.142740    0.0478310    5.92190e-08  1.04100e-11   0.00299100      0.00000  2.03332e-06   1.21748e-07
     -17.1460      1.84150      91.9311     0.806440     0.142740    0.0478310    3.60670e-08  4.93440e-12   0.00299100      0.00000  6.63242e-08   4.75085e-07
     -15.9920      1.74950      89.8289     0.806440     0.142740    0.0478310    1.90810e-08  1.90960e-12   0.00299100      0.00000  1.63154e-09   1.61741e-06
     -14.8240      1.66430      87.8298     0.827780     0.146520    0.0227100    1.01140e-08  7.41490e-13   0.00299100      0.00000  2.66533e-11   2.12303e-06
     -13.5320      1.57910      85.8307     0.832140     0.147290    0.0175800    5.20600e-09  2.75580e-13   0.00299100      0.00000  2.04701e-13   5.44086e-06
     -12.1680      1.49390      83.8315     0.835650     0.147910    0.0134480    2.59720e-09  9.77350e-14   0.00299100      0.00000  6.59148e-16   5.68862e-06
     -10.7980      1.41270      81.9053     0.838360     0.148390    0.0102600    1.28690e-09  3.43120e-14   0.00299100      0.00000  1.09042e-18   5.90267e-06
     -9.57900      1.34370      80.2349     0.840260     0.148720   0.00802440    6.80720e-10  1.32830e-14   0.00299100      0.00000  2.06537e-21   6.06793e-06
     -8.30800      1.27470      78.5645     0.841800     0.149000   0.00621390    3.50640e-10  4.94140e-15   0.00299100      0.00000  1.63494e-24   6.21807e-06
     -7.74700      1.24510      77.8487     0.842360     0.149100   0.00555160    2.61650e-10  3.19360e-15   0.00299100      0.00000  5.66800e-26   6.27856e-06
     -7.27200      1.22050      77.2521     0.842790     0.149170   0.00504590    2.04150e-10  2.20600e-15   0.00299100      0.00000  2.99008e-27   6.32726e-06
     -6.69200      1.19090      76.5362     0.843260     0.149260   0.00449160    1.50840e-10  1.40470e-15   0.00299100      0.00000  7.18107e-29   6.38419e-06
     -6.10000      1.16130      75.8204     0.843690     0.149330   0.00399010    1.10830e-10  8.87050e-16   0.00299100      0.00000  1.38544e-30   6.43954e-06
     -5.60000      1.13670      75.2238     0.844010     0.149390   0.00360920    8.53510e-11  6.00750e-16   0.00299100      0.00000  4.36232e-32   6.48453e-06
     -5.05200      1.11020      74.5595     0.844340     0.149450   0.00321960    6.34530e-11  3.86150e-16   0.00299100      0.00000  8.68834e-34   6.53130e-06
     -4.51800      1.08480      73.9139     0.844640     0.149500   0.00287500    4.73170e-11  2.49360e-16   0.00299100      0.00000  1.67200e-35   6.57491e-06
     -3.97600      1.05940      73.2683     0.844900     0.149550   0.00256250    3.51070e-11  1.59820e-16   0.00299100      0.00000  2.62233e-37   6.61784e-06
     -3.42400      1.03400      72.6227     0.845140     0.149590   0.00227970    2.59140e-11  1.01640e-16   0.00299100      0.00000      0.00000   6.66031e-06
     -2.86200      1.00860      71.9771     0.845360     0.149630   0.00202420    1.90280e-11  6.41230e-17   0.00299100      0.00000      0.00000   6.70254e-06
     -1.41400     0.945120      70.3632     0.845810     0.149710   0.00149080    8.58260e-12  1.95560e-17   0.00299100      0.00000      0.00000   6.80747e-06
      0.00000     0.885870      68.8568     0.846140     0.149760   0.00110760    3.95220e-12  6.14680e-18   0.00299100      0.00000      0.00000   6.90874e-06
      1.25300     0.835610      67.6311     0.846340     0.149800  0.000864400    2.05730e-12  2.31600e-18   0.00299100      0.00000      0.00000   7.00454e-06
      2.56300     0.785340      66.4053     0.846510     0.149830  0.000669430    1.04690e-12  8.42860e-19   0.00299100      0.00000      0.00000   7.10822e-06
      3.93400     0.735080      65.1796     0.846640     0.149850  0.000514390    5.20340e-13  2.95860e-19   0.00299100      0.00000      0.00000   7.22229e-06
      5.32800     0.686490      63.9808     0.846740     0.149870  0.000394180    2.56220e-13  1.02350e-19   0.00299100      0.00000      0.00000   7.34394e-06
      6.50300     0.647380      62.9636     0.846810     0.149880  0.000311560    1.37320e-13  4.02270e-20   0.00299100      0.00000      0.00000   7.44764e-06
      7.73300     0.608260      61.9464     0.846870     0.149890  0.000244790    7.22330e-14  1.53610e-20   0.00299100      0.00000      0.00000   7.56320e-06
      9.02300     0.569150      60.9292     0.846920     0.149900  0.000191180    3.72650e-14  5.69140e-21   0.00299100      0.00000      0.00000   7.69302e-06
      10.2900     0.532620      59.9369     0.846950     0.149910  0.000148900    1.91080e-14  2.09030e-21   0.00299100      0.00000      0.00000   7.82465e-06
      11.4790     0.500000      58.9824     0.846980     0.149910  0.000115850    9.81250e-15  7.70470e-22   0.00299100      0.00000      0.00000   7.94828e-06
      12.6290     0.469900      58.1014     0.847000     0.149920  9.13930e-05    5.21230e-15  2.98460e-22   0.00299100      0.00000      0.00000   8.07684e-06
      13.9400     0.437290      57.1469     0.847020     0.149920  7.02820e-05    2.57560e-15  1.03610e-22   0.00299100      0.00000      0.00000   8.23460e-06
      15.0600     0.410890      56.4900     0.847030     0.149920  5.90260e-05    1.58170e-15  4.95550e-23   0.00299100      0.00000      0.00000   8.39696e-06
      16.1660     0.386110      55.9312     0.847030     0.149920  5.11280e-05    1.04360e-15  2.63150e-23   0.00299100      0.00000      0.00000   8.57600e-06
      17.3340     0.361340      55.3724     0.847040     0.149920  4.42850e-05    6.84850e-16  1.38360e-23   0.00299100      0.00000      0.00000   8.77575e-06
      19.5530     0.318050      54.4433     0.847050     0.149930  3.51480e-05    3.38310e-16  4.68080e-24   0.00299100      0.00000      0.00000   9.19303e-06
      21.7590     0.279590      53.6770     0.847050     0.149930  2.94670e-05    1.89470e-16  1.89970e-24   0.00299100      0.00000      0.00000   9.66320e-06
      23.9510     0.245590      53.0617     0.847060     0.149930  2.60890e-05    1.20310e-16  9.25180e-25   0.00299100      0.00000      0.00000   1.01889e-05
      26.0940     0.216070      52.5752     0.847060     0.149930  2.42060e-05    8.53600e-17  5.29850e-25   0.00299100      0.00000      0.00000   1.07601e-05
      28.0740     0.191790      52.2439     0.847060     0.149930  2.36990e-05    6.94170e-17  3.71560e-25   0.00299100      0.00000      0.00000   1.13469e-05
      30.2300     0.168310      51.9639     0.847060     0.149930  2.39510e-05    5.98600e-17  2.82290e-25   0.00299100      0.00000      0.00000   1.20456e-05
      32.1950     0.149360      51.8212     0.847060     0.149930  2.53750e-05    5.84550e-17  2.58290e-25   0.00299100      0.00000      0.00000   1.27506e-05
      34.2650     0.131660      51.7234     0.847050     0.149930  2.75900e-05    5.84550e-17  2.53870e-25   0.00299100      0.00000      0.00000   1.35540e-05
      36.2230     0.116850      51.7386     0.847050     0.149930  3.12930e-05    5.84550e-17  2.53870e-25   0.00299100      0.00000      0.00000   1.43911e-05
      38.3020     0.102950      51.7892     0.847050     0.149930  3.63070e-05    5.84550e-17  2.53870e-25   0.00299100      0.00000      0.00000   1.53465e-05
      40.2480    0.0914800      52.0761     0.847040     0.149920  4.62450e-05    5.84550e-17  2.53870e-25   0.00299100      0.00000      0.00000   1.63712e-05
      42.3340    0.0806600      52.4267     0.847030     0.149920  6.09030e-05    5.84550e-17  2.53870e-25   0.00299100      0.00000      0.00000   1.75528e-05
      44.1850    0.0721900      52.7744     0.847010     0.149920  7.87650e-05    5.84550e-17  2.53870e-25   0.00299100      0.00000      0.00000   1.86766e-05
      46.2580    0.0638100      53.1434     0.846990     0.149920  0.000103850    5.84550e-17  2.53870e-25   0.00299100      0.00000      0.00000   2.00026e-05
      48.1240    0.0571500      53.5716     0.846960     0.149910  0.000138140    5.84550e-17  2.53870e-25   0.00299100      0.00000      0.00000   2.13025e-05
      50.0700    0.0509900      54.0297     0.846920     0.149900  0.000186140    5.84550e-17  2.53870e-25   0.00299100      0.00000      0.00000   2.27382e-05
      52.0660    0.0454100      54.5917     0.846860     0.149890  0.000260910    5.84550e-17  2.53870e-25   0.00299100      0.00000      0.00000   2.43314e-05
      53.9800    0.0406800      55.1811     0.846770     0.149880  0.000365720    5.84550e-17  2.53870e-25   0.00299100      0.00000      0.00000   2.59605e-05
      56.4640    0.0353300      56.0066     0.846590     0.149840  0.000574640    5.84550e-17  2.53870e-25   0.00299100      0.00000      0.00000   2.82190e-05
      58.9080    0.0308100      56.8467     0.846320     0.149800  0.000895810    5.84550e-17  2.53870e-25   0.00299100      0.00000      0.00000   3.06240e-05
      61.3100    0.0269800      57.7976     0.845860     0.149720   0.00143270    5.84550e-17  2.53870e-25   0.00299100      0.00000      0.00000   3.32914e-05
      63.8230    0.0235300      58.7332     0.845800     0.149710   0.00150000    5.84550e-17  2.53870e-25   0.00299100      0.00000      0.00000   3.62456e-05
      66.1570    0.0207700      59.9728     0.845800     0.149710   0.00150000    5.84550e-17  2.53870e-25   0.00299100      0.00000      0.00000   3.94186e-05
      68.7650    0.0181200      61.2467     0.845800     0.149710   0.00150000    5.84550e-17  2.53870e-25   0.00299100      0.00000      0.00000   4.31301e-05
      71.0990    0.0160800      62.7044     0.845800     0.149710   0.00150000    5.84550e-17  2.53870e-25   0.00299100      0.00000      0.00000   4.69068e-05
      73.6870    0.0141300      64.2007     0.845800     0.149710   0.00150000    5.84550e-17  2.53870e-25   0.00299100      0.00000      0.00000   5.12719e-05
      76.1370    0.0125400      65.9512     0.845800     0.149710   0.00150000    5.84550e-17  2.53870e-25   0.00299100      0.00000      0.00000   5.59540e-05
      78.7290    0.0110900      67.7355     0.845800     0.149710   0.00150000    5.84550e-17  2.53870e-25   0.00299100      0.00000      0.00000   6.11592e-05
      81.1750   0.00991000      70.0545     0.845800     0.149710   0.00150000    5.84550e-17  2.53870e-25   0.00299100      0.00000      0.00000   6.69757e-05
      83.8970   0.00878000      72.3966     0.845800     0.149710   0.00150000    5.84550e-17  2.53870e-25   0.00299100      0.00000      0.00000   7.36067e-05
      86.2950   0.00792000      74.9521     0.845800     0.149710   0.00150000    5.84550e-17  2.53870e-25   0.00299100      0.00000      0.00000   8.03066e-05
      89.1330   0.00704000      77.6022     0.845800     0.149710   0.00150000    5.84550e-17  2.53870e-25   0.00299100      0.00000      0.00000   8.82790e-05
      91.6290   0.00637000      80.4702     0.845800     0.149710   0.00150000    5.84550e-17  2.53870e-25   0.00299100      0.00000      0.00000   9.63217e-05
      94.3700   0.00573000      83.3615     0.845800     0.149710   0.00150000    5.84550e-17  2.53870e-25   0.00299100      0.00000      0.00000   0.000105305
      97.2870   0.00514000      86.5385     0.845800     0.149710   0.00150000    5.84550e-17  2.53870e-25   0.00299100      0.00000      0.00000   0.000115538
      100.320   0.00461000      89.8023     0.845800     0.149710   0.00150000    5.84550e-17  2.53870e-25   0.00299100      0.00000      0.00000   0.000126726
      103.355   0.00415000      92.8183     0.845800     0.149710   0.00150000    5.84550e-17  2.53870e-25   0.00299100      0.00000      0.00000   0.000138169
      106.137   0.00378000      95.5663     0.845800     0.149710   0.00150000    5.84550e-17  2.53870e-25   0.00299100      0.00000      0.00000   0.000149161
      109.296   0.00341000      98.3143     0.845800     0.149710   0.00150000    5.84550e-17  2.53870e-25   0.00299100      0.00000      0.00000   0.000161678
      111.993   0.00313000      100.671     0.845800     0.149710   0.00150000    5.84550e-17  2.53870e-25   0.00299100      0.00000      0.00000   0.000172887
      114.901   0.00286000      103.061     0.845800     0.149710   0.00150000    5.84550e-17  2.53870e-25   0.00299100      0.00000      0.00000   0.000185256
      118.047   0.00260000      105.425     0.845800     0.149710   0.00150000    5.84550e-17  2.53870e-25   0.00299100      0.00000      0.00000   0.000198862
      120.747   0.00240000      107.685     0.845800     0.149710   0.00150000    5.84550e-17  2.53870e-25   0.00299100      0.00000      0.00000   0.000211509
      124.063   0.00218000      110.090     0.845800     0.149710   0.00150000    5.84550e-17  2.53870e-25   0.00299100      0.00000      0.00000   0.000227002
      127.097   0.00200000      112.141     0.845800     0.149710   0.00150000    5.84550e-17  2.53870e-25   0.00299100      0.00000      0.00000   0.000241509
      130.083   0.00184000      113.918     0.845800     0.149710   0.00150000    5.84550e-17  2.53870e-25   0.00299100      0.00000      0.00000   0.000255865
      133.612   0.00167000      115.750     0.845800     0.149710   0.00150000    5.84550e-17  2.53870e-25   0.00299100      0.00000      0.00000   0.000272998
